Chromium                                                                
     1
    24
 1.000000
     2
     9    89
 ENERGY LIST
  1.0000E-03  1.0000E-04  5.0000E-04  1.5000E-03  2.0000E-03  3.0000E-03
  4.0000E-03  5.0000E-03  5.9892E-03
  5.9892E-03  6.0000E-03  8.0000E-03  1.0000E-02  1.5000E-02  2.0000E-02
  3.0000E-02  4.0000E-02  5.0000E-02  6.0000E-02  8.0000E-02  1.0000E-01
  1.5000E-01  2.0000E-01  2.5000E-01  2.5000E-01  3.0000E-01  4.0000E-01
  4.5000E-01  5.0000E-01  5.5000E-01  6.0000E-01  6.5000E-01  7.5000E-01
  8.0000E-01  8.5000E-01  9.5000E-01  1.0000E+00  1.0220E+00  1.2500E+00
  1.3000E+00  1.4000E+00  1.5000E+00  1.6000E+00  1.8000E+00  2.0000E+00
  2.0440E+00  2.2000E+00  2.6000E+00  3.0000E+00  4.0000E+00  5.0000E+00
  6.0000E+00  7.0000E+00  8.0000E+00  9.0000E+00  1.0000E+01  1.1000E+01
  1.2000E+01  1.3000E+01  1.4000E+01  1.5000E+01  1.6000E+01  1.8000E+01
  2.0000E+01  2.2000E+01  2.4000E+01  2.6000E+01  2.8000E+01  3.0000E+01
  4.0000E+01  5.0000E+01  6.0000E+01  8.0000E+01  1.0000E+02  1.5000E+02
  2.0000E+02  3.0000E+02  4.0000E+02  5.0000E+02  6.0000E+02  8.0000E+02
  1.0000E+03  1.5000E+03  2.0000E+03  3.0000E+03  4.0000E+03  5.0000E+03
  6.0000E+03  8.0000E+03  1.0000E+04  1.5000E+04  2.0000E+04  3.0000E+04
  4.0000E+04  5.0000E+04  6.0000E+04  8.0000E+04  1.0000E+05
 COHERENT SCATTERING CROSS SECTION
  4.1405E+00  3.5071E+01  4.8134E+00  3.8637E+00  3.5730E+00  3.0182E+00
  2.5318E+00  2.1288E+00  1.8079E+00
  1.8079E+00  1.8045E+00  1.3458E+00  1.0545E+00  6.6283E-01  4.5725E-01
  2.4936E-01  1.5728E-01  1.0916E-01  8.0529E-02  4.9049E-02  3.2881E-02
  1.5497E-02  8.9760E-03  5.8437E-03  5.8437E-03  4.1012E-03  2.3338E-03
  1.8509E-03  1.5033E-03  1.2447E-03  1.0472E-03  8.9330E-04  6.7214E-04
  5.9114E-04  5.2392E-04  4.1977E-04  3.7896E-04  3.6286E-04  2.4287E-04
  2.2459E-04  1.9369E-04  1.6875E-04  1.4833E-04  1.1722E-04  9.4972E-05
  9.0929E-05  7.8503E-05  5.6217E-05  4.2228E-05  2.3754E-05  1.5207E-05
  1.0559E-05  7.7576E-06  5.9404E-06  4.6930E-06  3.8012E-06  3.1422E-06
  2.6395E-06  2.2492E-06  1.9400E-06  1.6898E-06  1.4848E-06  1.1732E-06
  9.5041E-07  7.8548E-07  6.6005E-07  5.6242E-07  4.8493E-07  4.2239E-07
  2.3766E-07  1.5207E-07  1.0559E-07  5.9404E-08  3.8012E-08  1.6898E-08
  9.5029E-09  4.2239E-09  2.3754E-09  1.5207E-09  1.0559E-09  5.9392E-10
  3.8012E-10  1.6898E-10  9.5029E-11  4.2239E-11  2.3754E-11  1.5207E-11
  1.0559E-11  5.9392E-12  3.8012E-12  1.6898E-12  9.5029E-13  4.2239E-13
  2.3754E-13  1.5207E-13  1.0559E-13  5.9392E-14  3.8012E-14
 INCOHERENT SCATTERING CROSS SECTION
  8.5440E-03  1.0762E-02  3.5136E-03  1.4906E-02  2.1056E-02  3.2800E-02
  4.3571E-02  5.3277E-02  6.1882E-02
  6.1882E-02  6.1975E-02  7.6580E-02  8.7849E-02  1.0631E-01  1.1744E-01
  1.2937E-01  1.3412E-01  1.3551E-01  1.3528E-01  1.3284E-01  1.2914E-01
  1.1929E-01  1.1063E-01  1.0332E-01  1.0332E-01  9.7161E-02  8.7420E-02
  8.3484E-02  8.0008E-02  7.6906E-02  7.4113E-02  7.1577E-02  6.7145E-02
  6.5195E-02  6.3392E-02  6.0143E-02  5.8662E-02  5.8037E-02  5.2478E-02
  5.1432E-02  4.9484E-02  4.7706E-02  4.6077E-02  4.3194E-02  4.0722E-02
  4.0224E-02  3.8567E-02  3.4958E-02  3.2047E-02  2.6731E-02  2.3094E-02
  2.0407E-02  1.8346E-02  1.6690E-02  1.5346E-02  1.4223E-02  1.3261E-02
  1.2439E-02  1.1721E-02  1.1085E-02  1.0524E-02  1.0022E-02  9.1601E-03
  8.4467E-03  7.8456E-03  7.3313E-03  6.8843E-03  6.4940E-03  6.1500E-03
  4.8864E-03  4.0791E-03  3.5139E-03  2.7715E-03  2.3002E-03  1.6388E-03
  1.2844E-03  9.1045E-04  7.1310E-04  5.9021E-04  5.0543E-04  3.9471E-04
  3.2476E-04  2.2677E-04  1.7547E-04  1.2207E-04  9.4207E-05  7.7020E-05
  6.5310E-05  5.0323E-05  4.1081E-05  2.8399E-05  2.1832E-05  1.5056E-05
  1.1558E-05  9.4115E-06  7.9556E-06  6.1002E-06  4.9628E-06
 PHOTOELECTRIC ABSORPTION CROSS SECTION
  7.4008E+03  2.3157E+06  4.1731E+04  2.6905E+03  1.2740E+03  4.3085E+02
  1.9620E+02  1.0578E+02  6.3863E+01
  5.1400E+02  5.1424E+02  2.4994E+02  1.3759E+02  4.4949E+01  1.9805E+01
  6.0550E+00  2.5642E+00  1.3064E+00  7.4819E-01  3.0854E-01  1.5462E-01
  4.3988E-02  1.8172E-02  9.2545E-03  9.2545E-03  5.3960E-03  2.3754E-03
  1.7204E-03  1.3006E-03  1.0182E-03  8.1838E-04  6.7152E-04  4.7933E-04
  4.1637E-04  3.6742E-04  2.9141E-04  2.5897E-04  2.4565E-04  1.6620E-04
  1.5504E-04  1.3573E-04  1.1999E-04  1.0719E-04  8.7879E-05  7.4089E-05
  7.1576E-05  6.3804E-05  4.9582E-05  4.0317E-05  2.7206E-05  2.0396E-05
  1.6249E-05  1.3493E-05  1.1519E-05  1.0044E-05  8.8995E-06  7.9880E-06
  7.2433E-06  6.6260E-06  6.1037E-06  5.6578E-06  5.2732E-06  4.6397E-06
  4.1417E-06  3.7398E-06  3.4097E-06  3.1329E-06  2.8966E-06  2.6939E-06
  1.9956E-06  1.5844E-06  1.3134E-06  9.7890E-07  7.8016E-07  5.1748E-07
  3.8707E-07  2.5735E-07  1.9284E-07  1.5416E-07  1.2833E-07  9.6211E-08
  7.6939E-08  5.1261E-08  3.8440E-08  2.5619E-08  1.9214E-08  1.5369E-08
  1.2810E-08  9.6049E-09  7.6834E-09  5.1215E-09  3.8417E-09  2.5608E-09
  1.9203E-09  1.5369E-09  1.2798E-09  9.6026E-10  7.6823E-10
 PAIR PROD. CROSS SECTION (ATOMIC NUCLEUS)
  0.0000E-01  0.0000E-01  0.0000E-01  0.0000E-01  0.0000E-01  0.0000E-01
  0.0000E-01  0.0000E-01  0.0000E-01
  0.0000E-01  0.0000E-01  0.0000E-01  0.0000E-01  0.0000E-01  0.0000E-01
  0.0000E-01  0.0000E-01  0.0000E-01  0.0000E-01  0.0000E-01  0.0000E-01
  0.0000E-01  0.0000E-01  0.0000E-01  0.0000E-01  0.0000E-01  0.0000E-01
  0.0000E-01  0.0000E-01  0.0000E-01  0.0000E-01  0.0000E-01  0.0000E-01
  0.0000E-01  0.0000E-01  0.0000E-01  0.0000E-01  0.0000E-01  6.2646E-05
  9.9553E-05  1.9695E-04  3.2221E-04  4.7174E-04  8.2957E-04  1.2416E-03
  1.3366E-03  1.6792E-03  2.5699E-03  3.4468E-03  5.5188E-03  7.3499E-03
  8.9829E-03  1.0435E-02  1.1744E-02  1.2925E-02  1.3991E-02  1.4964E-02
  1.5856E-02  1.6678E-02  1.7454E-02  1.8160E-02  1.8832E-02  2.0071E-02
  2.1160E-02  2.2156E-02  2.3060E-02  2.3882E-02  2.4646E-02  2.5353E-02
  2.8214E-02  3.0356E-02  3.2036E-02  3.4537E-02  3.6321E-02  3.9216E-02
  4.0965E-02  4.3027E-02  4.4220E-02  4.5007E-02  4.5575E-02  4.6339E-02
  4.6826E-02  4.7544E-02  4.7937E-02  4.8354E-02  4.8586E-02  4.8725E-02
  4.8829E-02  4.8957E-02  4.9038E-02  4.9154E-02  4.9223E-02  4.9281E-02
  4.9316E-02  4.9339E-02  4.9350E-02  4.9374E-02  4.9385E-02
 PAIR PROD. CROSS SECTION (ATOMIC ELECTRONS)
  0.0000E-01  0.0000E-01  0.0000E-01  0.0000E-01  0.0000E-01  0.0000E-01
  0.0000E-01  0.0000E-01  0.0000E-01
  0.0000E-01  0.0000E-01  0.0000E-01  0.0000E-01  0.0000E-01  0.0000E-01
  0.0000E-01  0.0000E-01  0.0000E-01  0.0000E-01  0.0000E-01  0.0000E-01
  0.0000E-01  0.0000E-01  0.0000E-01  0.0000E-01  0.0000E-01  0.0000E-01
  0.0000E-01  0.0000E-01  0.0000E-01  0.0000E-01  0.0000E-01  0.0000E-01
  0.0000E-01  0.0000E-01  0.0000E-01  0.0000E-01  0.0000E-01  0.0000E-01
  0.0000E-01  0.0000E-01  0.0000E-01  0.0000E-01  0.0000E-01  0.0000E-01
  0.0000E-01  1.0728E-07  3.1829E-06  1.1215E-05  4.5783E-05  9.1207E-05
  1.4003E-04  1.8878E-04  2.3604E-04  2.8121E-04  3.2429E-04  3.6506E-04
  4.0363E-04  4.4000E-04  4.7463E-04  5.0752E-04  5.3879E-04  5.9682E-04
  6.4974E-04  6.9839E-04  7.4321E-04  7.8479E-04  8.2336E-04  8.5938E-04
  1.0096E-03  1.1248E-03  1.2173E-03  1.3586E-03  1.4616E-03  1.6365E-03
  1.7477E-03  1.8855E-03  1.9701E-03  2.0280E-03  2.0708E-03  2.1299E-03
  2.1693E-03  2.2284E-03  2.2631E-03  2.3002E-03  2.3222E-03  2.3349E-03
  2.3442E-03  2.3569E-03  2.3650E-03  2.3766E-03  2.3824E-03  2.3882E-03
  2.3928E-03  2.3951E-03  2.3963E-03  2.3986E-03  2.3998E-03
