Es                                                                      
     1
    99
 1.000000
    14
     4     3     3     3     5     3     3     3     3     6     3     3
     8    78
 ENERGY LIST
  1.0000E-03  1.0000E-04  5.0000E-04  1.0320E-03
  1.0320E-03  1.1676E-03  1.3210E-03
  1.3210E-03  1.5000E-03  1.6800E-03
  1.6800E-03  1.7715E-03  1.8680E-03
  1.8680E-03  2.0000E-03  3.0000E-03  4.0000E-03  4.3740E-03
  4.3740E-03  4.5002E-03  4.6300E-03
  4.6300E-03  5.0000E-03  5.2520E-03
  5.2520E-03  6.0000E-03  6.5740E-03
  6.5740E-03  6.7725E-03  6.9770E-03
  6.9770E-03  8.0000E-03  1.0000E-02  1.5000E-02  2.0000E-02  2.0410E-02
  2.0410E-02  2.3045E-02  2.6020E-02
  2.6020E-02  2.6456E-02  2.6900E-02
  2.6900E-02  3.0000E-02  4.0000E-02  5.0000E-02  6.0000E-02  8.0000E-02
  1.0000E-01  1.3949E-01
  1.3949E-01  1.5000E-01  2.0000E-01  2.5000E-01  3.0000E-01  3.5000E-01
  4.0000E-01  4.5000E-01  5.0000E-01  5.5000E-01  6.0000E-01  6.5000E-01
  7.5000E-01  8.0000E-01  8.5000E-01  9.5000E-01  1.0000E+00  1.0220E+00
  1.2500E+00  1.3000E+00  1.4000E+00  1.5000E+00  1.6000E+00  1.8000E+00
  2.0000E+00  2.0440E+00  2.2000E+00  2.6000E+00  3.0000E+00  4.0000E+00
  5.0000E+00  6.0000E+00  7.0000E+00  8.0000E+00  9.0000E+00  1.0000E+01
  1.1000E+01  1.2000E+01  1.3000E+01  1.4000E+01  1.5000E+01  1.6000E+01
  1.8000E+01  2.0000E+01  2.2000E+01  2.4000E+01  2.6000E+01  2.8000E+01
  3.0000E+01  4.0000E+01  5.0000E+01  6.0000E+01  8.0000E+01  1.0000E+02
  1.5000E+02  2.0000E+02  3.0000E+02  4.0000E+02  5.0000E+02  6.0000E+02
  8.0000E+02  1.0000E+03  1.5000E+03  2.0000E+03  3.0000E+03  4.0000E+03
  5.0000E+03  6.0000E+03  8.0000E+03  1.0000E+04  1.5000E+04  2.0000E+04
  3.0000E+04  4.0000E+04  5.0000E+04  6.0000E+04  8.0000E+04  1.0000E+05
 COHERENT SCATTERING CROSS SECTION
  1.4952E+01  1.0373E+01  1.5583E+01  1.4914E+01
  1.4914E+01  1.4761E+01  1.4582E+01
  1.4582E+01  1.4348E+01  1.4109E+01
  1.4109E+01  1.3994E+01  1.3870E+01
  1.3870E+01  1.3689E+01  1.2339E+01  1.1056E+01  1.0607E+01
  1.0607E+01  1.0460E+01  1.0311E+01
  1.0311E+01  9.9022E+00  9.6346E+00
  9.6346E+00  8.8988E+00  8.3900E+00
  8.3900E+00  8.2227E+00  8.0555E+00
  8.0555E+00  7.2982E+00  6.1038E+00  4.1735E+00  3.0364E+00  2.9647E+00
  2.9647E+00  2.5484E+00  2.1737E+00
  2.1737E+00  2.1268E+00  2.0808E+00
  2.0808E+00  1.7986E+00  1.2047E+00  8.7603E-01  6.6269E-01  4.1687E-01
  2.8930E-01  1.6553E-01
  1.6553E-01  1.4601E-01  8.7698E-02  5.8706E-02  4.2213E-02  3.1892E-02
  2.4965E-02  2.0071E-02  1.6486E-02  1.3783E-02  1.1694E-02  1.0047E-02
  7.6493E-03  6.7607E-03  6.0187E-03  4.8589E-03  4.4004E-03  4.2189E-03
  2.8548E-03  2.6449E-03  2.2888E-03  1.9998E-03  1.7621E-03  1.3982E-03
  1.1369E-03  1.0894E-03  9.4270E-04  6.7772E-04  5.1028E-04  2.8811E-04
  1.8476E-04  1.2845E-04  9.4459E-05  7.2337E-05  5.7191E-05  4.6322E-05
  3.8295E-05  3.2179E-05  2.7425E-05  2.3651E-05  2.0605E-05  1.8111E-05
  1.4310E-05  1.1591E-05  9.5797E-06  8.0508E-06  6.8611E-06  5.9150E-06
  5.1530E-06  2.8978E-06  1.8553E-06  1.2884E-06  7.2481E-07  4.6393E-07
  2.0614E-07  1.1596E-07  5.1530E-08  2.8978E-08  1.8553E-08  1.2884E-08
  7.2481E-09  4.6370E-09  2.0614E-09  1.1596E-09  5.1530E-10  2.8978E-10
  1.8553E-10  1.2884E-10  7.2481E-11  4.6370E-11  2.0614E-11  1.1596E-11
  5.1530E-12  2.8978E-12  1.8553E-12  1.2884E-12  7.2481E-13  4.6370E-13
 INCOHERENT SCATTERING CROSS SECTION
  4.0278E-03  8.9316E+19  6.9992E-03  4.2022E-03
  4.2022E-03  4.9298E-03  5.7478E-03
  5.7478E-03  6.7225E-03  7.7091E-03
  7.7091E-03  8.2106E-03  8.7388E-03
  8.7388E-03  9.4602E-03  1.4814E-02  1.9802E-02  2.1567E-02
  2.1567E-02  2.2149E-02  2.2740E-02
  2.2740E-02  2.4391E-02  2.5490E-02
  2.5490E-02  2.8572E-02  3.0817E-02
  3.0817E-02  3.1577E-02  3.2346E-02
  3.2346E-02  3.6001E-02  4.2595E-02  5.6021E-02  6.5672E-02  6.6341E-02
  6.6341E-02  7.0228E-02  7.3914E-02
  7.3914E-02  7.4405E-02  7.4894E-02
  7.4894E-02  7.8071E-02  8.5572E-02  9.0255E-02  9.3121E-02  9.5510E-02
  9.5630E-02  9.3217E-02
  9.3217E-02  9.2333E-02  8.7698E-02  8.3148E-02  7.9003E-02  7.5297E-02
  7.2003E-02  6.9069E-02  6.6437E-02  6.4053E-02  6.1874E-02  5.9866E-02
  5.6318E-02  5.4755E-02  5.3312E-02  5.0681E-02  4.9451E-02  4.8926E-02
  4.4339E-02  4.3477E-02  4.1861E-02  4.0373E-02  3.8999E-02  3.6568E-02
  3.4520E-02  3.4114E-02  3.2746E-02  2.9693E-02  2.7210E-02  2.2717E-02
  1.9625E-02  1.7351E-02  1.5597E-02  1.4198E-02  1.3051E-02  1.2093E-02
  1.1281E-02  1.0581E-02  9.9667E-03  9.4292E-03  8.9514E-03  8.5262E-03
  7.7928E-03  7.1860E-03  6.6747E-03  6.2375E-03  5.8577E-03  5.5256E-03
  5.2318E-03  4.1568E-03  3.4711E-03  2.9910E-03  2.3584E-03  1.9573E-03
  1.3940E-03  1.0929E-03  7.7474E-04  6.0679E-04  5.0216E-04  4.3001E-04
  3.3589E-04  2.7640E-04  1.9296E-04  1.4933E-04  1.0385E-04  8.0149E-05
  6.5529E-05  5.5567E-05  4.2810E-05  3.4950E-05  2.4152E-05  1.8574E-05
  1.2810E-05  9.8329E-06  8.0078E-06  6.7703E-06  5.1912E-06  4.2237E-06
 PHOTOELECTRIC ABSORPTION CROSS SECTION
  7.7713E+03  2.8994E+05  2.3102E+04  7.3962E+03
  7.6208E+03  6.2144E+03  5.0670E+03
  5.3919E+03  4.2093E+03  3.3445E+03
  3.3828E+03  3.0293E+03  2.7115E+03
  2.7592E+03  2.3885E+03  9.7971E+02  5.0574E+02  4.1018E+02
  9.0541E+02  8.5846E+02  8.1392E+02
  1.1257E+03  9.4913E+02  8.3972E+02
  9.8019E+02  7.0211E+02  5.5424E+02
  5.8768E+02  5.4548E+02  5.0646E+02
  5.2748E+02  3.7602E+02  2.1563E+02  7.7402E+01  3.6981E+01  3.5094E+01
  8.1583E+01  5.8808E+01  4.2380E+01
  6.1062E+01  5.8472E+01  5.5973E+01
  6.4502E+01  4.8950E+01  2.3612E+01  1.3244E+01  8.2156E+00  3.8438E+00
  2.1245E+00  8.7603E-01
  3.4210E+00  2.8787E+00  1.3944E+00  7.9666E-01  5.0932E-01  3.5078E-01
  2.5538E-01  1.9414E-01  1.5263E-01  1.2324E-01  1.0172E-01  8.5517E-02
  6.3102E-02  5.5137E-02  4.8627E-02  3.8788E-02  3.5046E-02  3.3589E-02
  2.2733E-02  2.1096E-02  1.8351E-02  1.6156E-02  1.4375E-02  1.1679E-02
  9.7517E-03  9.4005E-03  8.3161E-03  6.3423E-03  5.0694E-03  3.3015E-03
  2.4105E-03  1.8823E-03  1.5375E-03  1.2958E-03  1.1180E-03  9.8186E-04
  8.7459E-04  7.8811E-04  7.1669E-04  6.5696E-04  6.0632E-04  5.6284E-04
  4.9212E-04  4.3694E-04  3.9274E-04  3.5667E-04  3.2657E-04  3.0125E-04
  2.7951E-04  2.0514E-04  1.6197E-04  1.3381E-04  9.9237E-05  7.8859E-05
  5.2103E-05  3.8892E-05  2.5825E-05  1.9319E-05  1.5435E-05  1.2850E-05
  9.6275E-06  7.6948E-06  5.1267E-06  3.8414E-06  2.5610E-06  1.9200E-06
  1.5359E-06  1.2798E-06  9.5964E-07  7.6757E-07  5.1171E-07  3.8367E-07
  2.5586E-07  1.9188E-07  1.5349E-07  1.2790E-07  9.5940E-08  7.6757E-08
 PAIR PROD. CROSS SECTION (ATOMIC NUCLEUS)
  0.0000E+00  0.0000E+00  0.0000E+00  0.0000E+00
  0.0000E+00  0.0000E+00  0.0000E+00
  0.0000E+00  0.0000E+00  0.0000E+00
  0.0000E+00  0.0000E+00  0.0000E+00
  0.0000E+00  0.0000E+00  0.0000E+00  0.0000E+00  0.0000E+00
  0.0000E+00  0.0000E+00  0.0000E+00
  0.0000E+00  0.0000E+00  0.0000E+00
  0.0000E+00  0.0000E+00  0.0000E+00
  0.0000E+00  0.0000E+00  0.0000E+00
  0.0000E+00  0.0000E+00  0.0000E+00  0.0000E+00  0.0000E+00  0.0000E+00
  0.0000E+00  0.0000E+00  0.0000E+00
  0.0000E+00  0.0000E+00  0.0000E+00
  0.0000E+00  0.0000E+00  0.0000E+00  0.0000E+00  0.0000E+00  0.0000E+00
  0.0000E+00  0.0000E+00
  0.0000E+00  0.0000E+00  0.0000E+00  0.0000E+00  0.0000E+00  0.0000E+00
  0.0000E+00  0.0000E+00  0.0000E+00  0.0000E+00  0.0000E+00  0.0000E+00
  0.0000E+00  0.0000E+00  0.0000E+00  0.0000E+00  0.0000E+00  0.0000E+00
  5.0240E-04  8.0784E-04  1.6003E-03  2.5514E-03  3.5589E-03  5.5207E-03
  7.3484E-03  7.7426E-03  9.0878E-03  1.2164E-02  1.4819E-02  2.0404E-02
  2.5060E-02  2.8930E-02  3.2490E-02  3.5715E-02  3.8677E-02  4.1424E-02
  4.3957E-02  4.6346E-02  4.8567E-02  5.0646E-02  5.2605E-02  5.4444E-02
  5.7765E-02  6.0727E-02  6.3450E-02  6.5935E-02  6.8204E-02  7.0283E-02
  7.2194E-02  8.0006E-02  8.5835E-02  9.0350E-02  9.6991E-02  1.0167E-01
  1.0901E-01  1.1338E-01  1.1847E-01  1.2138E-01  1.2329E-01  1.2466E-01
  1.2645E-01  1.2762E-01  1.2929E-01  1.3025E-01  1.3118E-01  1.3180E-01
  1.3213E-01  1.3237E-01  1.3268E-01  1.3287E-01  1.3311E-01  1.3328E-01
  1.3340E-01  1.3352E-01  1.3359E-01  1.3361E-01  1.3364E-01  1.3366E-01
 PAIR PROD. CROSS SECTION (ATOMIC ELECTRONS)
  0.0000E+00  0.0000E+00  0.0000E+00  0.0000E+00
  0.0000E+00  0.0000E+00  0.0000E+00
  0.0000E+00  0.0000E+00  0.0000E+00
  0.0000E+00  0.0000E+00  0.0000E+00
  0.0000E+00  0.0000E+00  0.0000E+00  0.0000E+00  0.0000E+00
  0.0000E+00  0.0000E+00  0.0000E+00
  0.0000E+00  0.0000E+00  0.0000E+00
  0.0000E+00  0.0000E+00  0.0000E+00
  0.0000E+00  0.0000E+00  0.0000E+00
  0.0000E+00  0.0000E+00  0.0000E+00  0.0000E+00  0.0000E+00  0.0000E+00
  0.0000E+00  0.0000E+00  0.0000E+00
  0.0000E+00  0.0000E+00  0.0000E+00
  0.0000E+00  0.0000E+00  0.0000E+00  0.0000E+00  0.0000E+00  0.0000E+00
  0.0000E+00  0.0000E+00
  0.0000E+00  0.0000E+00  0.0000E+00  0.0000E+00  0.0000E+00  0.0000E+00
  0.0000E+00  0.0000E+00  0.0000E+00  0.0000E+00  0.0000E+00  0.0000E+00
  0.0000E+00  0.0000E+00  0.0000E+00  0.0000E+00  0.0000E+00  0.0000E+00
  0.0000E+00  0.0000E+00  0.0000E+00  0.0000E+00  0.0000E+00  0.0000E+00
  0.0000E+00  0.0000E+00  9.1187E-08  2.7008E-06  9.5032E-06  3.8701E-05
  7.6948E-05  1.1789E-04  1.5855E-04  1.9781E-04  2.3526E-04  2.7067E-04
  3.0411E-04  3.3565E-04  3.6527E-04  3.9322E-04  4.1974E-04  4.4482E-04
  4.9117E-04  5.3321E-04  5.7144E-04  6.0655E-04  6.3880E-04  6.6843E-04
  6.9614E-04  8.0938E-04  8.9442E-04  9.6107E-04  1.0602E-03  1.1314E-03
  1.2477E-03  1.3197E-03  1.4066E-03  1.4580E-03  1.4931E-03  1.5187E-03
  1.5538E-03  1.5769E-03  1.6113E-03  1.6309E-03  1.6522E-03  1.6649E-03
  1.6725E-03  1.6778E-03  1.6849E-03  1.6895E-03  1.6957E-03  1.6993E-03
  1.7026E-03  1.7048E-03  1.7062E-03  1.7069E-03  1.7079E-03  1.7086E-03
