Fluorine                                                                
     1
     9
 1.000000
     1
    96
 ENERGY LIST
  1.0000E-03  1.0000E-04  5.0000E-04  1.5000E-03  2.0000E-03  3.0000E-03
  4.0000E-03  5.0000E-03  6.0000E-03  8.0000E-03  1.0000E-02  1.5000E-02
  2.0000E-02  3.0000E-02  4.0000E-02  5.0000E-02  6.0000E-02  8.0000E-02
  1.0000E-01  1.5000E-01  2.0000E-01  2.5000E-01  2.5000E-01  3.0000E-01
  4.0000E-01  4.5000E-01  5.0000E-01  5.5000E-01  6.0000E-01  6.5000E-01
  7.5000E-01  8.0000E-01  8.5000E-01  9.5000E-01  1.0000E+00  1.0220E+00
  1.2500E+00  1.3000E+00  1.4000E+00  1.5000E+00  1.6000E+00  1.8000E+00
  2.0000E+00  2.0440E+00  2.2000E+00  2.6000E+00  3.0000E+00  4.0000E+00
  5.0000E+00  6.0000E+00  7.0000E+00  8.0000E+00  9.0000E+00  1.0000E+01
  1.1000E+01  1.2000E+01  1.3000E+01  1.4000E+01  1.5000E+01  1.6000E+01
  1.8000E+01  2.0000E+01  2.2000E+01  2.4000E+01  2.6000E+01  2.8000E+01
  3.0000E+01  4.0000E+01  5.0000E+01  6.0000E+01  8.0000E+01  1.0000E+02
  1.5000E+02  2.0000E+02  3.0000E+02  4.0000E+02  5.0000E+02  6.0000E+02
  8.0000E+02  1.0000E+03  1.5000E+03  2.0000E+03  3.0000E+03  4.0000E+03
  5.0000E+03  6.0000E+03  8.0000E+03  1.0000E+04  1.5000E+04  2.0000E+04
  3.0000E+04  4.0000E+04  5.0000E+04  6.0000E+04  8.0000E+04  1.0000E+05
 COHERENT SCATTERING CROSS SECTION
  1.6201E+00  1.9053E+01  1.8748E+00  1.5218E+00  1.4033E+00  1.1491E+00
  9.1988E-01  7.3698E-01  5.9783E-01  4.1429E-01  3.0579E-01  1.7339E-01
  1.1446E-01  6.0892E-02  3.7435E-02  2.5251E-02  1.8166E-02  1.0682E-02
  7.0116E-03  3.2110E-03  1.8271E-03  1.1760E-03  1.1760E-03  8.1940E-04
  4.6248E-04  3.6567E-04  2.9635E-04  2.4503E-04  2.0597E-04  1.7555E-04
  1.3190E-04  1.1595E-04  1.0274E-04  8.2266E-05  7.4237E-05  7.1067E-05
  4.7515E-05  4.3933E-05  3.7881E-05  3.2998E-05  2.9001E-05  2.2917E-05
  1.8569E-05  1.7779E-05  1.5351E-05  1.0991E-05  8.2542E-06  4.6438E-06
  2.9714E-06  2.0635E-06  1.5161E-06  1.1608E-06  9.1703E-07  7.4300E-07
  6.1399E-07  5.1573E-07  4.3965E-07  3.7911E-07  3.3029E-07  2.9020E-07
  2.2927E-07  1.8572E-07  1.5348E-07  1.2898E-07  1.0990E-07  9.4746E-08
  8.2542E-08  4.6438E-08  2.9714E-08  2.0635E-08  1.1608E-08  7.4269E-09
  3.2998E-09  1.8569E-09  8.2542E-10  4.6406E-10  2.9711E-10  2.0632E-10
  1.1605E-10  7.4269E-11  3.2998E-11  1.8569E-11  8.2542E-12  4.6406E-12
  2.9711E-12  2.0632E-12  1.1605E-12  7.4269E-13  3.2998E-13  1.8569E-13
  8.2542E-14  4.6406E-14  2.9711E-14  2.0632E-14  1.1605E-14  7.4269E-15
 INCOHERENT SCATTERING CROSS SECTION
  6.4315E-03  7.4056E-04  1.8728E-03  1.3535E-02  2.2147E-02  4.0986E-02
  5.8990E-02  7.4617E-02  8.7550E-02  1.0628E-01  1.1839E-01  1.3494E-01
  1.4340E-01  1.5088E-01  1.5240E-01  1.5136E-01  1.4917E-01  1.4369E-01
  1.3801E-01  1.2537E-01  1.1529E-01  1.0719E-01  1.0719E-01  1.0055E-01
  9.0213E-02  8.6066E-02  8.2415E-02  7.9172E-02  7.6266E-02  7.3642E-02
  6.9063E-02  6.7042E-02  6.5167E-02  6.1802E-02  6.0290E-02  5.9656E-02
  5.3918E-02  5.2839E-02  5.0835E-02  4.9005E-02  4.7323E-02  4.4345E-02
  4.1810E-02  4.1303E-02  3.9610E-02  3.5899E-02  3.2903E-02  2.7444E-02
  2.3701E-02  2.0949E-02  1.8829E-02  1.7136E-02  1.5751E-02  1.4594E-02
  1.3611E-02  1.2765E-02  1.2026E-02  1.1376E-02  1.0803E-02  1.0286E-02
  9.4017E-03  8.6694E-03  8.0513E-03  7.5251E-03  7.0655E-03  6.6661E-03
  6.3111E-03  5.0146E-03  4.1873E-03  3.6072E-03  2.8449E-03  2.3612E-03
  1.6816E-03  1.3183E-03  9.3446E-04  7.3191E-04  6.0575E-04  5.1858E-04
  4.0510E-04  3.3315E-04  2.3276E-04  1.8014E-04  1.2524E-04  9.6679E-05
  7.9055E-05  6.7042E-05  5.1636E-05  4.2158E-05  2.9140E-05  2.2404E-05
  1.5450E-05  1.1861E-05  9.6584E-06  8.1654E-06  6.2604E-06  5.0939E-06
 PHOTOELECTRIC ABSORPTION CROSS SECTION
  5.6486E+03  2.7972E+07  3.5632E+04  1.9770E+03  9.0340E+02  2.8760E+02
  1.2461E+02  6.4315E+01  3.7214E+01  1.5494E+01  7.7819E+00  2.1840E+00
  8.7487E-01  2.3698E-01  9.2971E-02  4.4821E-02  2.4626E-02  9.5633E-03
  4.5931E-03  1.2216E-03  4.8403E-04  2.3991E-04  2.3991E-04  1.3725E-04
  5.8895E-05  4.2276E-05  3.1762E-05  2.4760E-05  1.9795E-05  1.6122E-05
  1.1432E-05  9.9944E-06  8.9297E-06  7.1307E-06  6.2128E-06  5.8134E-06
  3.9432E-06  3.6962E-06  3.2411E-06  2.8617E-06  2.5602E-06  2.1154E-06
  1.7970E-06  1.7380E-06  1.5555E-06  1.2210E-06  1.0017E-06  6.8658E-07
  5.2017E-07  4.1810E-07  3.4900E-07  2.9936E-07  2.6202E-07  2.3292E-07
  2.0959E-07  1.9047E-07  1.7456E-07  1.6109E-07  1.4952E-07  1.3954E-07
  1.2305E-07  1.1002E-07  9.9500E-08  9.0815E-08  8.3525E-08  7.7312E-08
  7.1955E-08  5.3443E-08  4.2507E-08  3.5280E-08  2.6332E-08  2.1003E-08
  1.3947E-08  1.0441E-08  6.9451E-09  5.2048E-09  4.1620E-09  3.4678E-09
  2.5983E-09  2.0781E-09  1.3849E-09  1.0384E-09  6.9229E-10  5.1890E-10
  4.1525E-10  3.4614E-10  2.5948E-10  2.0759E-10  1.3839E-10  1.0378E-10
  6.9197E-11  5.1890E-11  4.1525E-11  3.4583E-11  2.5945E-11  2.0756E-11
 PAIR PROD. CROSS SECTION (ATOMIC NUCLEUS)
  0.0000E-01  0.0000E-01  0.0000E-01  0.0000E-01  0.0000E-01  0.0000E-01
  0.0000E-01  0.0000E-01  0.0000E-01  0.0000E-01  0.0000E-01  0.0000E-01
  0.0000E-01  0.0000E-01  0.0000E-01  0.0000E-01  0.0000E-01  0.0000E-01
  0.0000E-01  0.0000E-01  0.0000E-01  0.0000E-01  0.0000E-01  0.0000E-01
  0.0000E-01  0.0000E-01  0.0000E-01  0.0000E-01  0.0000E-01  0.0000E-01
  0.0000E-01  0.0000E-01  0.0000E-01  0.0000E-01  0.0000E-01  0.0000E-01
  2.0623E-05  3.3437E-05  6.8276E-05  1.1414E-04  1.6939E-04  3.0175E-04
  4.5455E-04  4.9005E-04  6.1902E-04  9.5971E-04  1.2999E-03  2.1082E-03
  2.8287E-03  3.4741E-03  4.0510E-03  4.5677E-03  5.0368E-03  5.4648E-03
  5.8546E-03  6.2097E-03  6.5393E-03  6.8468E-03  7.1352E-03  7.4047E-03
  7.9023E-03  8.3461E-03  8.7487E-03  9.1132E-03  9.4492E-03  9.7599E-03
  1.0048E-02  1.1221E-02  1.2115E-02  1.2822E-02  1.3884E-02  1.4664E-02
  1.5941E-02  1.6724E-02  1.7650E-02  1.8188E-02  1.8543E-02  1.8800E-02
  1.9146E-02  1.9368E-02  1.9691E-02  1.9868E-02  2.0062E-02  2.0163E-02
  2.0230E-02  2.0274E-02  2.0334E-02  2.0372E-02  2.0423E-02  2.0452E-02
  2.0480E-02  2.0496E-02  2.0506E-02  2.0512E-02  2.0521E-02  2.0528E-02
 PAIR PROD. CROSS SECTION (ATOMIC ELECTRONS)
  0.0000E-01  0.0000E-01  0.0000E-01  0.0000E-01  0.0000E-01  0.0000E-01
  0.0000E-01  0.0000E-01  0.0000E-01  0.0000E-01  0.0000E-01  0.0000E-01
  0.0000E-01  0.0000E-01  0.0000E-01  0.0000E-01  0.0000E-01  0.0000E-01
  0.0000E-01  0.0000E-01  0.0000E-01  0.0000E-01  0.0000E-01  0.0000E-01
  0.0000E-01  0.0000E-01  0.0000E-01  0.0000E-01  0.0000E-01  0.0000E-01
  0.0000E-01  0.0000E-01  0.0000E-01  0.0000E-01  0.0000E-01  0.0000E-01
  0.0000E-01  0.0000E-01  0.0000E-01  0.0000E-01  0.0000E-01  0.0000E-01
  0.0000E-01  0.0000E-01  1.1001E-07  3.2653E-06  1.1510E-05  4.7008E-05
  9.3636E-05  1.4385E-04  1.9393E-04  2.4259E-04  2.8921E-04  3.3378E-04
  3.7594E-04  4.1556E-04  4.5328E-04  4.8942E-04  5.2365E-04  5.5599E-04
  6.1653E-04  6.7200E-04  7.2303E-04  7.7026E-04  8.1401E-04  8.5490E-04
  8.9294E-04  1.0536E-03  1.1782E-03  1.2793E-03  1.4359E-03  1.5535E-03
  1.7548E-03  1.8857E-03  2.0499E-03  2.1501E-03  2.2192E-03  2.2702E-03
  2.3406E-03  2.3875E-03  2.4576E-03  2.4972E-03  2.5400E-03  2.5656E-03
  2.5809E-03  2.5920E-03  2.6062E-03  2.6154E-03  2.6278E-03  2.6351E-03
  2.6417E-03  2.6465E-03  2.6490E-03  2.6506E-03  2.6525E-03  2.6538E-03
