Hidrogen                                                                
     1
     1
 1.000000
     1
    96
 ENERGY LIST
  1.0000E-03  1.0000E-04  5.0000E-04  1.5000E-03  2.0000E-03  3.0000E-03
  4.0000E-03  5.0000E-03  6.0000E-03  8.0000E-03  1.0000E-02  1.5000E-02
  2.0000E-02  3.0000E-02  4.0000E-02  5.0000E-02  6.0000E-02  8.0000E-02
  1.0000E-01  1.5000E-01  2.0000E-01  2.5000E-01  2.5000E-01  3.0000E-01
  4.0000E-01  4.5000E-01  5.0000E-01  5.5000E-01  6.0000E-01  6.5000E-01
  7.5000E-01  8.0000E-01  8.5000E-01  9.5000E-01  1.0000E+00  1.0220E+00
  1.2500E+00  1.3000E+00  1.4000E+00  1.5000E+00  1.6000E+00  1.8000E+00
  2.0000E+00  2.0440E+00  2.2000E+00  2.6000E+00  3.0000E+00  4.0000E+00
  5.0000E+00  6.0000E+00  7.0000E+00  8.0000E+00  9.0000E+00  1.0000E+01
  1.1000E+01  1.2000E+01  1.3000E+01  1.4000E+01  1.5000E+01  1.6000E+01
  1.8000E+01  2.0000E+01  2.2000E+01  2.4000E+01  2.6000E+01  2.8000E+01
  3.0000E+01  4.0000E+01  5.0000E+01  6.0000E+01  8.0000E+01  1.0000E+02
  1.5000E+02  2.0000E+02  3.0000E+02  4.0000E+02  5.0000E+02  6.0000E+02
  8.0000E+02  1.0000E+03  1.5000E+03  2.0000E+03  3.0000E+03  4.0000E+03
  5.0000E+03  6.0000E+03  8.0000E+03  1.0000E+04  1.5000E+04  2.0000E+04
  3.0000E+04  4.0000E+04  5.0000E+04  6.0000E+04  8.0000E+04  1.0000E+05
 COHERENT SCATTERING CROSS SECTION
  3.4683E-01  8.4781E+01  4.9029E-01  2.9784E-01  2.4741E-01  1.6514E-01
  1.1238E-01  8.0121E-02  5.9675E-02  3.6601E-02  2.4622E-02  1.1609E-02
  6.6857E-03  3.0244E-03  1.7123E-03  1.0993E-03  7.6476E-04  4.3084E-04
  2.7597E-04  1.2278E-04  6.9068E-05  4.4207E-05  4.4207E-05  3.0704E-05
  1.7273E-05  1.3646E-05  1.1053E-05  9.1358E-06  7.6775E-06  6.5419E-06
  4.9131E-06  4.3179E-06  3.8247E-06  3.0618E-06  2.7633E-06  2.6456E-06
  1.7685E-06  1.6352E-06  1.4102E-06  1.2284E-06  1.0794E-06  8.5241E-07
  6.9068E-07  6.6140E-07  5.7123E-07  4.0896E-07  3.0704E-07  1.7273E-07
  1.1053E-07  7.6775E-08  5.6395E-08  4.3179E-08  3.4116E-08  2.7633E-08
  2.2841E-08  1.9191E-08  1.6353E-08  1.4100E-08  1.2284E-08  1.0796E-08
  8.5319E-09  6.9068E-09  5.7094E-09  4.7977E-09  4.0879E-09  3.5245E-09
  3.0704E-09  1.7267E-09  1.1053E-09  7.6715E-10  4.3149E-10  2.7603E-10
  1.2272E-10  6.9008E-11  3.0674E-11  1.7255E-11  1.1041E-11  7.6655E-12
  4.3131E-12  2.7603E-12  1.2272E-12  6.9008E-13  3.0674E-13  1.7255E-13
  1.1041E-13  7.6655E-14  4.3131E-14  2.7603E-14  1.2272E-14  6.9008E-15
  3.0674E-15  1.7255E-15  1.1041E-15  7.6655E-16  4.3131E-16  2.7603E-16
 INCOHERENT SCATTERING CROSS SECTION
  5.0331E-02  6.9800E-02  1.7221E-02  9.8583E-02  1.4805E-01  2.2835E-01
  2.7932E-01  3.0991E-01  3.2879E-01  3.4892E-01  3.5806E-01  3.6416E-01
  3.6254E-01  3.5394E-01  3.4408E-01  3.3440E-01  3.2526E-01  3.0865E-01
  2.9413E-01  2.6498E-01  2.4281E-01  2.2538E-01  2.2538E-01  2.1121E-01
  1.8928E-01  1.8054E-01  1.7285E-01  1.6601E-01  1.5988E-01  1.5436E-01
  1.4472E-01  1.4047E-01  1.3651E-01  1.2945E-01  1.2631E-01  1.2499E-01
  1.1292E-01  1.1065E-01  1.0646E-01  1.0265E-01  9.9143E-02  9.2928E-02
  8.7589E-02  8.6514E-02  8.2936E-02  7.5150E-02  6.8888E-02  5.7477E-02
  4.9638E-02  4.3872E-02  3.9433E-02  3.5890E-02  3.2992E-02  3.0567E-02
  2.8511E-02  2.6737E-02  2.5189E-02  2.3827E-02  2.2620E-02  2.1545E-02
  1.9693E-02  1.8157E-02  1.6867E-02  1.5761E-02  1.4799E-02  1.3957E-02
  1.3216E-02  1.0504E-02  8.7709E-03  7.5520E-03  5.9580E-03  4.9447E-03
  3.5215E-03  2.7609E-03  1.9567E-03  1.5325E-03  1.2684E-03  1.0862E-03
  8.4841E-04  6.9784E-04  4.8748E-04  3.7724E-04  2.6229E-04  2.0248E-04
  1.6556E-04  1.4041E-04  1.0814E-04  8.8306E-05  6.1002E-05  4.6919E-05
  3.2359E-05  2.4843E-05  2.0230E-05  1.7100E-05  1.3114E-05  1.0665E-05
 PHOTOELECTRIC ABSORPTION CROSS SECTION
  6.8171E+00  2.2770E+04  7.0084E+01  1.7518E+00  6.6379E-01  1.6765E-01
  6.2914E-02  2.9318E-02  1.5696E-02  5.8648E-03  2.7233E-03  6.7395E-04
  2.4986E-04  6.1659E-05  2.2841E-05  1.0581E-05  5.6491E-06  2.1049E-06
  9.8224E-07  2.4950E-07  9.6252E-08  4.6792E-08  4.6792E-08  2.6372E-08
  1.1101E-08  7.9307E-09  5.9311E-09  4.6015E-09  3.6792E-09  3.0167E-09
  2.1529E-09  1.8629E-09  1.6332E-09  1.2968E-09  1.1716E-09  1.1232E-09
  7.7910E-10  7.3002E-10  6.4825E-10  5.8146E-10  5.2483E-10  4.3546E-10
  3.7049E-10  3.5872E-10  3.2227E-10  2.5501E-10  2.1055E-10  1.4602E-10
  1.1149E-10  9.0098E-11  7.5520E-11  6.5005E-11  5.7034E-11  5.0803E-11
  4.5796E-11  4.1685E-11  3.8244E-11  3.5334E-11  3.2831E-11  3.0656E-11
  2.7071E-11  2.4239E-11  2.1939E-11  2.0039E-11  1.8444E-11  1.7082E-11
  1.5905E-11  1.1836E-11  9.4221E-12  7.8269E-12  5.8474E-12  4.6668E-12
  3.1015E-12  2.3224E-12  1.5457E-12  1.1585E-12  9.2608E-13  7.7133E-13
  5.7847E-13  4.6268E-13  3.0835E-13  2.3122E-13  1.5415E-13  1.1555E-13
  9.2488E-14  7.7074E-14  5.7781E-14  4.6226E-14  3.0817E-14  2.3110E-14
  1.5409E-14  1.1555E-14  9.2429E-15  7.7014E-15  5.7775E-15  4.6220E-15
 PAIR PROD. CROSS SECTION (ATOMIC NUCLEUS)
  0.0000E-01  0.0000E-01  0.0000E-01  0.0000E-01  0.0000E-01  0.0000E-01
  0.0000E-01  0.0000E-01  0.0000E-01  0.0000E-01  0.0000E-01  0.0000E-01
  0.0000E-01  0.0000E-01  0.0000E-01  0.0000E-01  0.0000E-01  0.0000E-01
  0.0000E-01  0.0000E-01  0.0000E-01  0.0000E-01  0.0000E-01  0.0000E-01
  0.0000E-01  0.0000E-01  0.0000E-01  0.0000E-01  0.0000E-01  0.0000E-01
  0.0000E-01  0.0000E-01  0.0000E-01  0.0000E-01  0.0000E-01  0.0000E-01
  4.6633E-06  7.5913E-06  1.5600E-05  2.6199E-05  3.9001E-05  6.9700E-05
  1.0504E-04  1.1322E-04  1.4301E-04  2.2216E-04  3.0160E-04  4.9004E-04
  6.5841E-04  8.0957E-04  9.4400E-04  1.0659E-03  1.1770E-03  1.2774E-03
  1.3694E-03  1.4536E-03  1.5325E-03  1.6060E-03  1.6747E-03  1.7398E-03
  1.8593E-03  1.9669E-03  2.0655E-03  2.1557E-03  2.2387E-03  2.3164E-03
  2.3887E-03  2.6922E-03  2.9288E-03  3.1218E-03  3.4241E-03  3.6541E-03
  4.0514E-03  4.3101E-03  4.6322E-03  4.8270E-03  4.9590E-03  5.0552E-03
  5.1860E-03  5.2721E-03  5.3981E-03  5.4686E-03  5.5427E-03  5.5881E-03
  5.6144E-03  5.6329E-03  5.6574E-03  5.6730E-03  5.6933E-03  5.7052E-03
  5.7160E-03  5.7244E-03  5.7285E-03  5.7309E-03  5.7339E-03  5.7363E-03
 PAIR PROD. CROSS SECTION (ATOMIC ELECTRONS)
  0.0000E-01  0.0000E-01  0.0000E-01  0.0000E-01  0.0000E-01  0.0000E-01
  0.0000E-01  0.0000E-01  0.0000E-01  0.0000E-01  0.0000E-01  0.0000E-01
  0.0000E-01  0.0000E-01  0.0000E-01  0.0000E-01  0.0000E-01  0.0000E-01
  0.0000E-01  0.0000E-01  0.0000E-01  0.0000E-01  0.0000E-01  0.0000E-01
  0.0000E-01  0.0000E-01  0.0000E-01  0.0000E-01  0.0000E-01  0.0000E-01
  0.0000E-01  0.0000E-01  0.0000E-01  0.0000E-01  0.0000E-01  0.0000E-01
  0.0000E-01  0.0000E-01  0.0000E-01  0.0000E-01  0.0000E-01  0.0000E-01
  0.0000E-01  0.0000E-01  2.3074E-07  6.8437E-06  2.4108E-05  9.8403E-05
  1.9615E-04  3.0124E-04  4.0616E-04  5.0803E-04  6.0583E-04  6.9904E-04
  7.8747E-04  8.7111E-04  9.4998E-04  1.0253E-03  1.0970E-03  1.1657E-03
  1.2929E-03  1.4094E-03  1.5170E-03  1.6168E-03  1.7100E-03  1.7966E-03
  1.8778E-03  2.2220E-03  2.4932E-03  2.7161E-03  3.0686E-03  3.3416E-03
  3.8310E-03  4.1679E-03  4.6190E-03  4.9130E-03  5.1233E-03  5.2822E-03
  5.5105E-03  5.6670E-03  5.9078E-03  6.0464E-03  6.2017E-03  6.2914E-03
  6.3511E-03  6.3929E-03  6.4467E-03  6.4825E-03  6.5303E-03  6.5542E-03
  6.5841E-03  6.6020E-03  6.6080E-03  6.6200E-03  6.6259E-03  6.6319E-03
