Li                                                                      
     1
     3
 1.000000
     1
    96
 ENERGY LIST
  1.0000E-03  1.0000E-04  5.0000E-04  1.5000E-03  2.0000E-03  3.0000E-03
  4.0000E-03  5.0000E-03  6.0000E-03  8.0000E-03  1.0000E-02  1.5000E-02
  2.0000E-02  3.0000E-02  4.0000E-02  5.0000E-02  6.0000E-02  8.0000E-02
  1.0000E-01  1.5000E-01  2.0000E-01  2.5000E-01  3.0000E-01  3.5000E-01
  4.0000E-01  4.5000E-01  5.0000E-01  5.5000E-01  6.0000E-01  6.5000E-01
  7.5000E-01  8.0000E-01  8.5000E-01  9.5000E-01  1.0000E+00  1.0220E+00
  1.2500E+00  1.3000E+00  1.4000E+00  1.5000E+00  1.6000E+00  1.8000E+00
  2.0000E+00  2.0440E+00  2.2000E+00  2.6000E+00  3.0000E+00  4.0000E+00
  5.0000E+00  6.0000E+00  7.0000E+00  8.0000E+00  9.0000E+00  1.0000E+01
  1.1000E+01  1.2000E+01  1.3000E+01  1.4000E+01  1.5000E+01  1.6000E+01
  1.8000E+01  2.0000E+01  2.2000E+01  2.4000E+01  2.6000E+01  2.8000E+01
  3.0000E+01  4.0000E+01  5.0000E+01  6.0000E+01  8.0000E+01  1.0000E+02
  1.5000E+02  2.0000E+02  3.0000E+02  4.0000E+02  5.0000E+02  6.0000E+02
  8.0000E+02  1.0000E+03  1.5000E+03  2.0000E+03  3.0000E+03  4.0000E+03
  5.0000E+03  6.0000E+03  8.0000E+03  1.0000E+04  1.5000E+04  2.0000E+04
  3.0000E+04  4.0000E+04  5.0000E+04  6.0000E+04  8.0000E+04  1.0000E+05
 COHERENT SCATTERING CROSS SECTION
  4.1073E-01  8.9458E+00  5.8355E-01  3.4193E-01  2.9204E-01  2.3157E-01
  1.9357E-01  1.6389E-01  1.3899E-01  1.0090E-01  7.4849E-02  4.0136E-02
  2.4736E-02  1.1990E-02  7.0060E-03  4.5723E-03  3.2111E-03  1.8272E-03
  1.1765E-03  5.2569E-04  2.9629E-04  1.8981E-04  1.3188E-04  9.6912E-05
  7.4207E-05  5.8638E-05  4.7502E-05  3.9263E-05  3.2996E-05  2.8117E-05
  2.1119E-05  1.8558E-05  1.6435E-05  1.3156E-05  1.1878E-05  1.1374E-05
  7.6038E-06  7.0299E-06  6.0617E-06  5.2803E-06  4.6399E-06  3.6647E-06
  2.9699E-06  2.8441E-06  2.4563E-06  1.7581E-06  1.3196E-06  7.4259E-07
  4.7528E-07  3.3004E-07  2.4250E-07  1.8567E-07  1.4671E-07  1.1878E-07
  9.8214E-08  8.2510E-08  7.0303E-08  6.0620E-08  5.2803E-08  4.6409E-08
  3.6674E-08  2.9707E-08  2.4545E-08  2.0623E-08  1.7578E-08  1.5157E-08
  1.3205E-08  7.4251E-09  4.7519E-09  3.3004E-09  1.8558E-09  1.1878E-09
  5.2786E-10  2.9690E-10  1.3196E-10  7.4233E-11  4.7511E-11  3.2996E-11
  1.8558E-11  1.1878E-11  5.2786E-12  2.9690E-12  1.3196E-12  7.4233E-13
  4.7511E-13  3.2996E-13  1.8558E-13  1.1878E-13  5.2786E-14  2.9690E-14
  1.3196E-14  7.4233E-15  4.7511E-15  3.2996E-15  1.8558E-15  1.1878E-15
 INCOHERENT SCATTERING CROSS SECTION
  3.0792E-02  1.9344E+00  1.7614E-02  4.5749E-02  5.5337E-02  6.9149E-02
  8.1218E-02  9.2228E-02  1.0212E-01  1.1774E-01  1.2867E-01  1.4264E-01
  1.4767E-01  1.4906E-01  1.4680E-01  1.4368E-01  1.4029E-01  1.3361E-01
  1.2763E-01  1.1522E-01  1.0568E-01  9.8129E-02  9.1968E-02  8.6810E-02
  8.2415E-02  7.8613E-02  7.5275E-02  7.2306E-02  6.9644E-02  6.7239E-02
  6.3044E-02  6.1193E-02  5.9478E-02  5.6401E-02  5.5016E-02  5.4434E-02
  4.9194E-02  4.8209E-02  4.6382E-02  4.4717E-02  4.3190E-02  4.0483E-02
  3.8158E-02  3.7689E-02  3.6132E-02  3.2745E-02  3.0020E-02  2.5039E-02
  2.1621E-02  1.9114E-02  1.7179E-02  1.5634E-02  1.4368E-02  1.3318E-02
  1.2416E-02  1.1643E-02  1.0975E-02  1.0377E-02  9.8561E-03  9.3876E-03
  8.5781E-03  7.9101E-03  7.3470E-03  6.8655E-03  6.4464E-03  6.0811E-03
  5.7584E-03  4.5758E-03  3.8201E-03  3.2909E-03  2.5959E-03  2.1543E-03
  1.5339E-03  1.2025E-03  8.5252E-04  6.6772E-04  5.5267E-04  4.7320E-04
  3.6961E-04  3.0410E-04  2.1239E-04  1.6433E-04  1.1427E-04  8.8237E-05
  7.2125E-05  6.1158E-05  4.7120E-05  3.8470E-05  2.6584E-05  2.0441E-05
  1.4099E-05  1.0819E-05  8.8150E-06  7.4494E-06  5.7124E-06  4.6470E-06
 PHOTOELECTRIC ABSORPTION CROSS SECTION
  2.3339E+02  7.6356E+05  2.0422E+03  6.6295E+01  2.6723E+01  7.2481E+00
  2.8397E+00  1.3630E+00  7.4650E-01  2.8675E-01  1.3604E-01  3.4783E-02
  1.3153E-02  3.3325E-03  1.2537E-03  5.8738E-04  3.1625E-04  1.1912E-04
  5.6083E-05  1.4455E-05  5.6230E-06  2.7497E-06  1.5582E-06  9.7827E-07
  6.6069E-07  4.7181E-07  3.5407E-07  2.7662E-07  2.1977E-07  1.7568E-07
  1.2304E-07  1.1071E-07  1.0410E-07  8.5487E-08  6.8880E-08  6.1063E-08
  4.1542E-08  3.9581E-08  3.4712E-08  3.0245E-08  2.6914E-08  2.2392E-08
  1.9192E-08  1.8576E-08  1.6663E-08  1.3155E-08  1.0845E-08  7.4988E-09
  5.7141E-09  4.6097E-09  3.8609E-09  3.3195E-09  2.9109E-09  2.5916E-09
  2.3348E-09  2.1239E-09  1.9487E-09  1.7994E-09  1.6719E-09  1.5608E-09
  1.3778E-09  1.2329E-09  1.1158E-09  1.0195E-09  9.3790E-10  8.6849E-10
  8.0853E-10  6.0135E-10  4.7866E-10  3.9754E-10  2.9690E-10  2.3686E-10
  1.5739E-10  1.1782E-10  7.8424E-11  5.8772E-11  4.6990E-11  3.9147E-11
  2.9352E-11  2.3469E-11  1.5643E-11  1.1730E-11  7.8190E-12  5.8634E-12
  4.6903E-12  3.9086E-12  2.9317E-12  2.3452E-12  1.5634E-12  1.1722E-12
  7.8164E-13  5.8625E-13  4.6895E-13  3.9078E-13  2.9308E-13  2.3452E-13
 PAIR PROD. CROSS SECTION (ATOMIC NUCLEUS)
  0.0000E+00  0.0000E+00  0.0000E+00  0.0000E+00  0.0000E+00  0.0000E+00
  0.0000E+00  0.0000E+00  0.0000E+00  0.0000E+00  0.0000E+00  0.0000E+00
  0.0000E+00  0.0000E+00  0.0000E+00  0.0000E+00  0.0000E+00  0.0000E+00
  0.0000E+00  0.0000E+00  0.0000E+00  0.0000E+00  0.0000E+00  0.0000E+00
  0.0000E+00  0.0000E+00  0.0000E+00  0.0000E+00  0.0000E+00  0.0000E+00
  0.0000E+00  0.0000E+00  0.0000E+00  0.0000E+00  0.0000E+00  0.0000E+00
  6.1184E-06  9.9547E-06  2.0438E-05  3.4297E-05  5.1015E-05  9.1082E-05
  1.3734E-04  1.4810E-04  1.8722E-04  2.9075E-04  3.9433E-04  6.4056E-04
  8.6016E-04  1.0576E-03  1.2338E-03  1.3934E-03  1.5374E-03  1.6693E-03
  1.7890E-03  1.8992E-03  2.0025E-03  2.0979E-03  2.1873E-03  2.2723E-03
  2.4276E-03  2.5673E-03  2.6948E-03  2.8111E-03  2.9187E-03  3.0176E-03
  3.1104E-03  3.4913E-03  3.7785E-03  4.0093E-03  4.3633E-03  4.6166E-03
  5.0331E-03  5.2925E-03  5.6092E-03  5.7983E-03  5.9267E-03  6.0195E-03
  6.1471E-03  6.2312E-03  6.3544E-03  6.4238E-03  6.4993E-03  6.5401E-03
  6.5661E-03  6.5852E-03  6.6086E-03  6.6243E-03  6.6451E-03  6.6572E-03
  6.6694E-03  6.6755E-03  6.6798E-03  6.6824E-03  6.6859E-03  6.6876E-03
 PAIR PROD. CROSS SECTION (ATOMIC ELECTRONS)
  0.0000E+00  0.0000E+00  0.0000E+00  0.0000E+00  0.0000E+00  0.0000E+00
  0.0000E+00  0.0000E+00  0.0000E+00  0.0000E+00  0.0000E+00  0.0000E+00
  0.0000E+00  0.0000E+00  0.0000E+00  0.0000E+00  0.0000E+00  0.0000E+00
  0.0000E+00  0.0000E+00  0.0000E+00  0.0000E+00  0.0000E+00  0.0000E+00
  0.0000E+00  0.0000E+00  0.0000E+00  0.0000E+00  0.0000E+00  0.0000E+00
  0.0000E+00  0.0000E+00  0.0000E+00  0.0000E+00  0.0000E+00  0.0000E+00
  0.0000E+00  0.0000E+00  0.0000E+00  0.0000E+00  0.0000E+00  0.0000E+00
  0.0000E+00  0.0000E+00  1.0036E-07  2.9786E-06  1.0498E-05  4.2878E-05
  8.5443E-05  1.3127E-04  1.7691E-04  2.2133E-04  2.6393E-04  3.0445E-04
  3.4297E-04  3.7941E-04  4.1377E-04  4.4665E-04  4.7788E-04  5.0773E-04
  5.6317E-04  6.1401E-04  6.6095E-04  7.0433E-04  7.4476E-04  7.8250E-04
  8.1790E-04  9.6739E-04  1.0845E-03  1.1808E-03  1.3301E-03  1.4437E-03
  1.6415E-03  1.7717E-03  1.9417E-03  2.0502E-03  2.1283E-03  2.1873E-03
  2.2723E-03  2.3313E-03  2.4233E-03  2.4779E-03  2.5404E-03  2.5768E-03
  2.6003E-03  2.6167E-03  2.6393E-03  2.6532E-03  2.6740E-03  2.6853E-03
  2.6966E-03  2.7035E-03  2.7078E-03  2.7113E-03  2.7139E-03  2.7165E-03
