Nitrogen                                                                
     1
     7
 1.000000
     1
    96
 ENERGY LIST
  1.0000E-03  1.0000E-04  5.0000E-04  1.5000E-03  2.0000E-03  3.0000E-03
  4.0000E-03  5.0000E-03  6.0000E-03  8.0000E-03  1.0000E-02  1.5000E-02
  2.0000E-02  3.0000E-02  4.0000E-02  5.0000E-02  6.0000E-02  8.0000E-02
  1.0000E-01  1.5000E-01  2.0000E-01  2.5000E-01  2.5000E-01  3.0000E-01
  4.0000E-01  4.5000E-01  5.0000E-01  5.5000E-01  6.0000E-01  6.5000E-01
  7.5000E-01  8.0000E-01  8.5000E-01  9.5000E-01  1.0000E+00  1.0220E+00
  1.2500E+00  1.3000E+00  1.4000E+00  1.5000E+00  1.6000E+00  1.8000E+00
  2.0000E+00  2.0440E+00  2.2000E+00  2.6000E+00  3.0000E+00  4.0000E+00
  5.0000E+00  6.0000E+00  7.0000E+00  8.0000E+00  9.0000E+00  1.0000E+01
  1.1000E+01  1.2000E+01  1.3000E+01  1.4000E+01  1.5000E+01  1.6000E+01
  1.8000E+01  2.0000E+01  2.2000E+01  2.4000E+01  2.6000E+01  2.8000E+01
  3.0000E+01  4.0000E+01  5.0000E+01  6.0000E+01  8.0000E+01  1.0000E+02
  1.5000E+02  2.0000E+02  3.0000E+02  4.0000E+02  5.0000E+02  6.0000E+02
  8.0000E+02  1.0000E+03  1.5000E+03  2.0000E+03  3.0000E+03  4.0000E+03
  5.0000E+03  6.0000E+03  8.0000E+03  1.0000E+04  1.5000E+04  2.0000E+04
  3.0000E+04  4.0000E+04  5.0000E+04  6.0000E+04  8.0000E+04  1.0000E+05
 COHERENT SCATTERING CROSS SECTION
  1.2911E+00  4.2730E+01  1.6014E+00  1.1755E+00  1.0456E+00  8.0013E-01
  6.1095E-01  4.7724E-01  3.8381E-01  2.6854E-01  2.0302E-01  1.2060E-01
  8.0400E-02  4.2302E-02  2.5835E-02  1.7378E-02  1.2473E-02  7.2962E-03
  4.7681E-03  2.1695E-03  1.2309E-03  7.9120E-04  7.9120E-04  5.5076E-04
  3.1046E-04  2.4544E-04  1.9889E-04  1.6444E-04  1.3823E-04  1.1781E-04
  8.8504E-05  7.7777E-05  6.8881E-05  5.5141E-05  4.9788E-05  4.7681E-05
  3.1876E-05  2.9468E-05  2.5409E-05  2.2138E-05  1.9462E-05  1.5383E-05
  1.2456E-05  1.1922E-05  1.0286E-05  7.3638E-06  5.5334E-06  3.1141E-06
  1.9928E-06  1.3840E-06  1.0168E-06  7.7863E-07  6.1525E-07  4.9831E-07
  4.1176E-07  3.4598E-07  2.9481E-07  2.5418E-07  2.2142E-07  1.9464E-07
  1.5379E-07  1.2456E-07  1.0293E-07  8.6505E-08  7.3693E-08  6.3546E-08
  5.5377E-08  3.1137E-08  1.9928E-08  1.3840E-08  7.7820E-09  4.9831E-09
  2.2138E-09  1.2451E-09  5.5334E-10  3.1132E-10  1.9924E-10  1.3836E-10
  7.7820E-11  4.9831E-11  2.2138E-11  1.2451E-11  5.5334E-12  3.1132E-12
  1.9924E-12  1.3836E-12  7.7820E-13  4.9831E-13  2.2138E-13  1.2451E-13
  5.5334E-14  3.1132E-14  1.9924E-14  1.3836E-14  7.7820E-15  4.9831E-15
 INCOHERENT SCATTERING CROSS SECTION
  1.1007E-02  3.9908E-03  3.4674E-03  2.2349E-02  3.5105E-02  5.9848E-02
  8.0228E-02  9.5663E-02  1.0723E-01  1.2288E-01  1.3298E-01  1.4829E-01
  1.5672E-01  1.6338E-01  1.6385E-01  1.6192E-01  1.5908E-01  1.5267E-01
  1.4631E-01  1.3264E-01  1.2185E-01  1.1324E-01  1.1324E-01  1.0620E-01
  9.5233E-02  9.0840E-02  8.6978E-02  8.3551E-02  8.0486E-02  7.7722E-02
  7.2881E-02  7.0726E-02  6.8718E-02  6.5150E-02  6.3589E-02  6.2944E-02
  5.6882E-02  5.5728E-02  5.3600E-02  5.1679E-02  4.9933E-02  4.6834E-02
  4.4112E-02  4.3553E-02  4.1718E-02  3.7821E-02  3.4710E-02  2.8953E-02
  2.5001E-02  2.2099E-02  1.9863E-02  1.8079E-02  1.6617E-02  1.5396E-02
  1.4360E-02  1.3466E-02  1.2688E-02  1.2004E-02  1.1394E-02  1.0852E-02
  9.9188E-03  9.1449E-03  8.4957E-03  7.9368E-03  7.4553E-03  7.0339E-03
  6.6599E-03  5.2926E-03  4.4155E-03  3.8054E-03  3.0010E-03  2.4911E-03
  1.7740E-03  1.3909E-03  9.8587E-04  7.7218E-04  6.3890E-04  5.4732E-04
  4.2737E-04  3.5161E-04  2.4554E-04  1.9004E-04  1.3212E-04  1.0198E-04
  8.3409E-05  7.0726E-05  5.4474E-05  4.4499E-05  3.0741E-05  2.3634E-05
  1.6299E-05  1.2516E-05  1.0190E-05  8.6118E-06  6.6040E-06  5.3743E-06
 PHOTOELECTRIC ABSORPTION CROSS SECTION
  3.3102E+03  1.0776E+07  2.3144E+04  1.0813E+03  4.7595E+02  1.4476E+02
  6.0966E+01  3.0870E+01  1.7593E+01  7.1672E+00  3.5432E+00  9.6738E-01
  3.8076E-01  1.0095E-01  3.9069E-02  1.8660E-02  1.0185E-02  3.9185E-03
  1.8690E-03  4.9186E-04  1.9416E-04  9.5809E-05  9.5809E-05  5.4603E-05
  2.3337E-05  1.6731E-05  1.2563E-05  9.7938E-06  7.8207E-06  6.3501E-06
  4.4937E-06  3.9456E-06  3.5529E-06  2.8490E-06  2.4524E-06  2.2757E-06
  1.5448E-06  1.4518E-06  1.2731E-06  1.1217E-06  1.0026E-06  8.2937E-07
  7.0640E-07  6.8361E-07  6.1276E-07  4.8181E-07  3.9555E-07  2.7185E-07
  2.0633E-07  1.6600E-07  1.3874E-07  1.1909E-07  1.0430E-07  9.2739E-08
  8.3495E-08  7.5928E-08  6.9608E-08  6.4234E-08  5.9633E-08  5.5678E-08
  4.9100E-08  4.3940E-08  3.9731E-08  3.6266E-08  3.3359E-08  3.0883E-08
  2.8746E-08  2.1360E-08  1.6991E-08  1.4107E-08  1.0534E-08  8.4011E-09
  5.5807E-09  4.1769E-09  2.7796E-09  2.0827E-09  1.6652E-09  1.3870E-09
  1.0396E-09  8.3151E-10  5.5420E-10  4.1559E-10  2.7701E-10  2.0771E-10
  1.6617E-10  1.3849E-10  1.0383E-10  8.3065E-11  5.5377E-11  4.1537E-11
  2.7689E-11  2.0766E-11  1.6613E-11  1.3844E-11  1.0383E-11  8.3065E-12
 PAIR PROD. CROSS SECTION (ATOMIC NUCLEUS)
  0.0000E-01  0.0000E-01  0.0000E-01  0.0000E-01  0.0000E-01  0.0000E-01
  0.0000E-01  0.0000E-01  0.0000E-01  0.0000E-01  0.0000E-01  0.0000E-01
  0.0000E-01  0.0000E-01  0.0000E-01  0.0000E-01  0.0000E-01  0.0000E-01
  0.0000E-01  0.0000E-01  0.0000E-01  0.0000E-01  0.0000E-01  0.0000E-01
  0.0000E-01  0.0000E-01  0.0000E-01  0.0000E-01  0.0000E-01  0.0000E-01
  0.0000E-01  0.0000E-01  0.0000E-01  0.0000E-01  0.0000E-01  0.0000E-01
  1.6901E-05  2.7408E-05  5.5978E-05  9.3599E-05  1.3891E-04  2.4744E-04
  3.7263E-04  4.0170E-04  5.0730E-04  7.8655E-04  1.0658E-03  1.7297E-03
  2.3208E-03  2.8531E-03  3.3265E-03  3.7539E-03  4.1417E-03  4.4929E-03
  4.8154E-03  5.1078E-03  5.3829E-03  5.6366E-03  5.8774E-03  6.1009E-03
  6.5094E-03  6.8748E-03  7.2102E-03  7.5112E-03  7.7906E-03  8.0443E-03
  8.2808E-03  9.2567E-03  9.9962E-03  1.0585E-02  1.1467E-02  1.2120E-02
  1.3204E-02  1.3883E-02  1.4696E-02  1.5177E-02  1.5500E-02  1.5732E-02
  1.6041E-02  1.6248E-02  1.6544E-02  1.6712E-02  1.6888E-02  1.6987E-02
  1.7047E-02  1.7090E-02  1.7146E-02  1.7181E-02  1.7232E-02  1.7258E-02
  1.7284E-02  1.7301E-02  1.7310E-02  1.7314E-02  1.7323E-02  1.7327E-02
 PAIR PROD. CROSS SECTION (ATOMIC ELECTRONS)
  0.0000E-01  0.0000E-01  0.0000E-01  0.0000E-01  0.0000E-01  0.0000E-01
  0.0000E-01  0.0000E-01  0.0000E-01  0.0000E-01  0.0000E-01  0.0000E-01
  0.0000E-01  0.0000E-01  0.0000E-01  0.0000E-01  0.0000E-01  0.0000E-01
  0.0000E-01  0.0000E-01  0.0000E-01  0.0000E-01  0.0000E-01  0.0000E-01
  0.0000E-01  0.0000E-01  0.0000E-01  0.0000E-01  0.0000E-01  0.0000E-01
  0.0000E-01  0.0000E-01  0.0000E-01  0.0000E-01  0.0000E-01  0.0000E-01
  0.0000E-01  0.0000E-01  0.0000E-01  0.0000E-01  0.0000E-01  0.0000E-01
  0.0000E-01  0.0000E-01  1.1615E-07  3.4460E-06  1.2142E-05  4.9573E-05
  9.8802E-05  1.5173E-04  2.0461E-04  2.5590E-04  3.0513E-04  3.5204E-04
  3.9654E-04  4.3854E-04  4.7853E-04  5.1636E-04  5.5248E-04  5.8688E-04
  6.5094E-04  7.0941E-04  7.6358E-04  8.1346E-04  8.5989E-04  9.0332E-04
  9.4373E-04  1.1140E-03  1.2468E-03  1.3543E-03  1.5216E-03  1.6476E-03
  1.8660E-03  2.0100E-03  2.1936E-03  2.3079E-03  2.3879E-03  2.4473E-03
  2.5298E-03  2.5857E-03  2.6695E-03  2.7173E-03  2.7701E-03  2.8011E-03
  2.8200E-03  2.8333E-03  2.8514E-03  2.8626E-03  2.8781E-03  2.8871E-03
  2.8957E-03  2.9013E-03  2.9043E-03  2.9064E-03  2.9090E-03  2.9107E-03
