Ruthenium                                                               
     1
    44
 1.000000
     5
     6     3     3     9    70
 ENERGY LIST
  1.0000E-03  1.0000E-04  5.0000E-04  1.5000E-03  2.0000E-03  2.8379E-03
  2.8379E-03  2.9017E-03  2.9669E-03
  2.9669E-03  3.0000E-03  3.2240E-03
  3.2240E-03  4.0000E-03  5.0000E-03  6.0000E-03  8.0000E-03  1.0000E-02
  1.5000E-02  2.0000E-02  2.2117E-02
  2.2117E-02  3.0000E-02  4.0000E-02  5.0000E-02  6.0000E-02  8.0000E-02
  1.0000E-01  1.5000E-01  2.0000E-01  3.0000E-01  4.0000E-01  5.0000E-01
  6.0000E-01  8.0000E-01  1.0000E+00  1.0220E+00  1.2500E+00  1.5000E+00
  2.0000E+00  2.0440E+00  3.0000E+00  4.0000E+00  5.0000E+00  6.0000E+00
  7.0000E+00  8.0000E+00  9.0000E+00  1.0000E+01  1.1000E+01  1.2000E+01
  1.3000E+01  1.4000E+01  1.5000E+01  1.6000E+01  1.8000E+01  2.0000E+01
  2.2000E+01  2.4000E+01  2.6000E+01  2.8000E+01  3.0000E+01  4.0000E+01
  5.0000E+01  6.0000E+01  8.0000E+01  1.0000E+02  1.5000E+02  2.0000E+02
  3.0000E+02  4.0000E+02  5.0000E+02  6.0000E+02  8.0000E+02  1.0000E+03
  1.5000E+03  2.0000E+03  3.0000E+03  4.0000E+03  5.0000E+03  6.0000E+03
  8.0000E+03  1.0000E+04  1.5000E+04  2.0000E+04  3.0000E+04  4.0000E+04
  5.0000E+04  6.0000E+04  8.0000E+04  1.0000E+05
 COHERENT SCATTERING CROSS SECTION
  7.2752E+00  4.5448E+01  8.2395E+00  6.8760E+00  6.4410E+00  5.7105E+00
  5.7105E+00  5.6562E+00  5.6015E+00
  5.6015E+00  5.5741E+00  5.3917E+00
  5.3917E+00  4.8084E+00  4.1727E+00  3.6567E+00  2.8982E+00  2.3708E+00
  1.5331E+00  1.0528E+00  9.1759E-01
  9.1759E-01  5.9280E-01  3.8682E-01  2.7164E-01  2.0044E-01  1.2227E-01
  8.2762E-02  4.0094E-02  2.3548E-02  1.0904E-02  6.2623E-03  4.0529E-03
  2.8350E-03  1.6076E-03  1.0332E-03  9.8969E-04  6.6317E-04  4.6118E-04
  2.5985E-04  2.4882E-04  1.1559E-04  6.5066E-05  4.1649E-05  2.8928E-05
  2.1254E-05  1.6272E-05  1.2858E-05  1.0415E-05  8.6099E-06  7.2335E-06
  6.1610E-06  5.3137E-06  4.6291E-06  4.0684E-06  3.2145E-06  2.6038E-06
  2.1522E-06  1.8084E-06  1.5408E-06  1.3287E-06  1.1571E-06  6.5125E-07
  4.1661E-07  2.8934E-07  1.6272E-07  1.0415E-07  4.6291E-08  2.6038E-08
  1.1571E-08  6.5066E-09  4.1661E-09  2.8934E-09  1.6272E-09  1.0415E-09
  4.6291E-10  2.6038E-10  1.1571E-10  6.5066E-11  4.1661E-11  2.8934E-11
  1.6272E-11  1.0415E-11  4.6291E-12  2.6038E-12  1.1571E-12  6.5066E-13
  4.1661E-13  2.8934E-13  1.6272E-13  1.0415E-13
 INCOHERENT SCATTERING CROSS SECTION
  5.7915E-03  6.0024E-03  2.2666E-03  1.0397E-02  1.4967E-02  2.2255E-02
  2.2255E-02  2.2786E-02  2.3327E-02
  2.3327E-02  2.3601E-02  2.5418E-02
  2.5418E-02  3.1430E-02  3.8586E-02  4.5188E-02  5.6700E-02  6.5959E-02
  8.2464E-02  9.3606E-02  9.7241E-02
  9.7241E-02  1.0707E-01  1.1398E-01  1.1744E-01  1.1893E-01  1.1869E-01
  1.1661E-01  1.0928E-01  1.0213E-01  9.0448E-02  8.1749E-02  7.5016E-02
  6.9594E-02  6.1312E-02  5.5210E-02  5.4626E-02  4.9419E-02  4.4944E-02
  3.8378E-02  3.7907E-02  3.0215E-02  2.5210E-02  2.1772E-02  1.9246E-02
  1.7297E-02  1.5742E-02  1.4473E-02  1.3412E-02  1.2507E-02  1.1732E-02
  1.1053E-02  1.0457E-02  9.9267E-03  9.4500E-03  8.6397E-03  7.9664E-03
  7.4003E-03  6.9177E-03  6.4946E-03  6.1252E-03  5.7999E-03  4.6088E-03
  3.8473E-03  3.3146E-03  2.6139E-03  2.1700E-03  1.5450E-03  1.2113E-03
  8.5860E-04  6.7270E-04  5.5669E-04  4.7667E-04  3.7228E-04  3.0626E-04
  2.1391E-04  1.6552E-04  1.1512E-04  8.8839E-05  7.2633E-05  6.1610E-05
  4.7459E-05  3.8747E-05  2.6777E-05  2.0586E-05  1.4199E-05  1.0898E-05
  8.8780E-06  7.5016E-06  5.7534E-06  4.6809E-06
 PHOTOELECTRIC ABSORPTION CROSS SECTION
  5.7105E+03  1.1791E+06  2.8414E+04  2.2338E+03  1.1130E+03  4.6475E+02
  1.6380E+03  1.5397E+03  1.4467E+03
  1.9692E+03  1.9573E+03  1.6320E+03
  1.8685E+03  1.0898E+03  6.1252E+02  3.7943E+02  1.7553E+02  9.5572E+01
  3.1085E+01  1.3847E+01  1.0415E+01
  6.7747E+01  3.0698E+01  1.4014E+01  7.5314E+00  4.5027E+00  1.9740E+00
  1.0326E+00  3.1532E-01  1.3615E-01  4.2698E-02  1.9412E-02  1.0850E-02
  6.9058E-03  3.5560E-03  2.2177E-03  2.1099E-03  1.4235E-03  1.0213E-03
  6.2325E-04  6.0180E-04  3.3272E-04  2.2141E-04  1.6427E-04  1.3001E-04
  1.0725E-04  9.1163E-05  7.9187E-05  6.9951E-05  6.2623E-05  5.6658E-05
  5.1725E-05  4.7572E-05  4.4032E-05  4.0976E-05  3.5977E-05  3.2056E-05
  2.8904E-05  2.6312E-05  2.4149E-05  2.2314E-05  2.0735E-05  1.5313E-05
  1.2137E-05  1.0046E-05  7.4778E-06  5.9530E-06  3.9433E-06  2.9482E-06
  1.9591E-06  1.4670E-06  1.1726E-06  9.7658E-07  7.3169E-07  5.8505E-07
  3.8980E-07  2.9226E-07  1.9478E-07  1.4604E-07  1.1684E-07  9.7360E-08
  7.2990E-08  5.8404E-08  3.8932E-08  2.9202E-08  1.9466E-08  1.4598E-08
  1.1678E-08  9.7300E-09  7.2990E-09  5.8398E-09
 PAIR PROD. CROSS SECTION (ATOMIC NUCLEUS)
  0.0000E+00  0.0000E+00  0.0000E+00  0.0000E+00  0.0000E+00  0.0000E+00
  0.0000E+00  0.0000E+00  0.0000E+00
  0.0000E+00  0.0000E+00  0.0000E+00
  0.0000E+00  0.0000E+00  0.0000E+00  0.0000E+00  0.0000E+00  0.0000E+00
  0.0000E+00  0.0000E+00  0.0000E+00
  0.0000E+00  0.0000E+00  0.0000E+00  0.0000E+00  0.0000E+00  0.0000E+00
  0.0000E+00  0.0000E+00  0.0000E+00  0.0000E+00  0.0000E+00  0.0000E+00
  0.0000E+00  0.0000E+00  0.0000E+00  0.0000E+00  1.4372E-04  6.7806E-04
  2.3845E-03  2.5532E-03  6.2503E-03  9.7300E-03  1.2757E-02  1.5379E-02
  1.7726E-02  1.9835E-02  2.1748E-02  2.3506E-02  2.5115E-02  2.6598E-02
  2.7963E-02  2.9220E-02  3.0388E-02  3.1478E-02  3.3480E-02  3.5268E-02
  3.6894E-02  3.8372E-02  3.9725E-02  4.0958E-02  4.2096E-02  4.6714E-02
  5.0134E-02  5.2803E-02  5.6736E-02  5.9536E-02  6.3993E-02  6.6674E-02
  6.9773E-02  7.1560E-02  7.2692E-02  7.3586E-02  7.4659E-02  7.5433E-02
  7.6446E-02  7.7042E-02  7.7638E-02  7.7995E-02  7.8174E-02  7.8353E-02
  7.8531E-02  7.8651E-02  7.8829E-02  7.8889E-02  7.9008E-02  7.9068E-02
  7.9068E-02  7.9127E-02  7.9127E-02  7.9127E-02
 PAIR PROD. CROSS SECTION (ATOMIC ELECTRONS)
  0.0000E+00  0.0000E+00  0.0000E+00  0.0000E+00  0.0000E+00  0.0000E+00
  0.0000E+00  0.0000E+00  0.0000E+00
  0.0000E+00  0.0000E+00  0.0000E+00
  0.0000E+00  0.0000E+00  0.0000E+00  0.0000E+00  0.0000E+00  0.0000E+00
  0.0000E+00  0.0000E+00  0.0000E+00
  0.0000E+00  0.0000E+00  0.0000E+00  0.0000E+00  0.0000E+00  0.0000E+00
  0.0000E+00  0.0000E+00  0.0000E+00  0.0000E+00  0.0000E+00  0.0000E+00
  0.0000E+00  0.0000E+00  0.0000E+00  0.0000E+00  0.0000E+00  0.0000E+00
  0.0000E+00  0.0000E+00  1.0570E-05  4.3127E-05  8.5860E-05  1.3174E-04
  1.7744E-04  2.2171E-04  2.6408E-04  3.0435E-04  3.4243E-04  3.7836E-04
  4.1220E-04  4.4444E-04  4.7494E-04  5.0390E-04  5.5759E-04  6.0656E-04
  6.5125E-04  6.9236E-04  7.3050E-04  7.6565E-04  7.9842E-04  9.3427E-04
  1.0374E-03  1.1190E-03  1.2423E-03  1.3323E-03  1.4818E-03  1.5754E-03
  1.6904E-03  1.7595E-03  1.8072E-03  1.8417E-03  1.8894E-03  1.9216E-03
  1.9686E-03  1.9961E-03  2.0253E-03  2.0425E-03  2.0533E-03  2.0604E-03
  2.0705E-03  2.0771E-03  2.0854E-03  2.0902E-03  2.0950E-03  2.0979E-03
  2.0997E-03  2.1009E-03  2.1021E-03  2.1033E-03
